# depth[mm]	Amp[V]	HF [V]	TGC [dB]
0.0	0.470	0.005	0.315
0.1	0.725	0.013	0.472
0.3	0.991	0.989	0.157
0.4	1.218	-0.940	-0.157
0.5	1.368	-1.011	0.472
0.7	1.419	-1.011	0.472
0.8	1.373	0.541	0.315
1.0	1.271	0.997	0.315
1.1	1.181	0.997	0.157
1.2	1.168	-1.011	0.315
1.4	1.245	0.997	0.315
1.5	1.354	0.997	0.315
1.6	1.407	0.911	0.157
1.8	1.356	-1.011	0.315
1.9	1.244	-1.011	0.157
2.0	1.169	-0.499	0.315
2.2	1.202	0.997	0.157
2.3	1.322	0.997	0.157
2.5	1.431	0.997	0.315
2.6	1.440	-1.011	0.472
2.7	1.352	-1.011	0.157
2.9	1.252	0.635	0.157
3.0	1.229	0.997	0.157
3.1	1.284	0.942	0.315
3.3	1.328	-0.719	0.315
3.4	1.267	-1.011	0.315
3.5	1.089	-1.011	0.157
3.7	0.887	-0.570	0.157
3.8	0.778	-0.089	0.315
4.0	0.802	0.312	0.315
4.1	0.891	0.871	0.157
4.2	0.926	0.785	0.157
4.4	0.840	0.092	0.157
4.5	0.665	-0.522	0.315
4.6	0.497	-0.444	0.315
4.8	0.411	0.084	0.157
4.9	0.406	0.399	0.157
5.0	0.418	0.289	0.315
5.2	0.388	-0.082	0.315
5.3	0.310	-0.278	0.315
5.5	0.228	-0.176	0.315
5.6	0.190	0.084	0.315
5.7	0.202	0.202	0.157
5.9	0.227	0.107	0.315
6.0	0.224	-0.097	0.157
6.1	0.184	-0.184	0.315
6.3	0.137	-0.082	0.315
6.4	0.124	0.037	0.157
6.5	0.158	0.147	0.157
6.7	0.214	0.163	0.315
6.8	0.256	-0.034	0.315
7.0	0.261	-0.239	0.315
7.1	0.243	-0.208	0.315
7.2	0.230	-0.003	0.157
7.4	0.241	0.170	0.157
7.5	0.269	0.265	0.315
7.6	0.288	0.084	0.157
7.8	0.280	-0.208	0.315
7.9	0.249	-0.223	0.315
8.0	0.218	0.005	0.157
8.2	0.209	0.186	0.157
8.3	0.222	0.194	0.315
8.5	0.239	0.044	0.315
8.6	0.236	-0.176	0.315
8.7	0.209	-0.200	0.315
8.9	0.172	-0.050	0.315
9.0	0.145	0.084	0.157
9.1	0.139	0.139	0.157
9.3	0.144	0.092	0.315
9.4	0.144	-0.042	0.315
9.5	0.128	-0.121	0.157
9.7	0.100	-0.066	0.157
9.8	0.073	0.021	0.157
10.0	0.060	0.060	0.315
10.1	0.061	0.044	0.315
10.2	0.068	-0.003	0.157
10.4	0.074	-0.050	0.315
10.5	0.075	-0.074	0.315
10.6	0.075	-0.019	0.315
10.8	0.075	0.052	0.315
10.9	0.072	0.068	0.157
11.1	0.065	0.013	0.315
11.2	0.053	-0.034	0.157
11.3	0.042	-0.034	0.157
11.5	0.037	-0.003	0.315
11.6	0.043	0.037	0.315
11.7	0.054	0.029	0.157
11.9	0.061	-0.034	0.157
12.0	0.060	-0.058	0.315
12.1	0.051	-0.019	0.315
12.3	0.039	0.021	0.157
12.4	0.030	0.029	0.157
12.6	0.026	0.013	0.157
12.7	0.024	-0.003	0.157
12.8	0.022	-0.011	0.315
13.0	0.020	-0.003	0.157
13.1	0.019	0.005	0.157
13.2	0.020	-0.003	0.315
13.4	0.022	-0.019	0.157
13.5	0.023	-0.019	0.315
13.6	0.022	-0.003	0.315
13.8	0.022	-0.003	0.157
13.9	0.026	0.029	0.157
14.1	0.038	0.021	0.157
14.2	0.051	-0.034	0.315
14.3	0.060	-0.034	0.315
14.5	0.061	0.044	0.315
14.6	0.055	0.037	0.157
14.7	0.050	-0.050	0.157
14.9	0.051	-0.019	0.315
15.0	0.058	0.044	0.315
15.1	0.064	-0.026	0.157
15.3	0.062	-0.066	0.157
15.4	0.054	0.013	0.157
15.6	0.046	0.044	0.157
15.7	0.050	0.029	0.157
15.8	0.068	0.052	0.157
16.0	0.095	-0.019	0.315
16.1	0.120	-0.121	0.315
16.2	0.133	-0.082	0.157
16.4	0.131	0.052	0.157
16.5	0.118	0.115	0.315
16.6	0.101	0.044	0.315
16.8	0.085	-0.058	0.157
16.9	0.070	-0.066	0.315
17.1	0.058	-0.026	0.157
17.2	0.049	0.021	0.315
17.3	0.043	0.044	0.157
17.5	0.040	0.021	0.157
17.6	0.038	-0.019	0.315
17.7	0.036	-0.026	0.000
17.9	0.032	-0.026	0.315
18.0	0.027	-0.003	1.890
18.1	0.024	0.021	3.307
18.3	0.024	0.013	4.094
18.4	0.030	-0.019	4.724
18.6	0.043	-0.034	5.197
18.7	0.061	0.029	5.354
18.8	0.079	0.076	5.512
19.0	0.093	0.005	5.512
19.1	0.098	-0.089	5.669
19.2	0.092	-0.066	5.669
19.4	0.077	0.037	5.827
19.5	0.057	0.052	5.827
19.6	0.039	0.021	5.827
19.8	0.027	-0.003	5.984
19.9	0.025	-0.011	5.984
20.1	0.032	-0.026	5.984
20.2	0.046	-0.042	5.984
20.3	0.062	-0.026	5.984
20.5	0.079	0.044	5.984
20.6	0.096	0.100	5.984
20.7	0.114	0.037	6.142
20.9	0.131	-0.082	6.142
21.0	0.144	-0.137	6.142
21.1	0.149	-0.042	6.142
21.3	0.147	0.131	6.142
21.4	0.154	0.076	6.299
21.6	0.197	-0.184	6.299
21.7	0.306	-0.066	6.299
21.8	0.492	0.446	6.299
22.0	0.727	0.462	6.299
22.1	0.952	-0.585	6.457
22.2	1.096	-1.011	6.457
22.4	1.115	-0.019	6.457
22.5	1.018	0.934	6.457
22.6	0.861	0.706	6.457
22.8	0.718	-0.050	6.457
22.9	0.635	-0.467	6.614
23.1	0.611	-0.601	6.614
23.2	0.605	-0.239	6.614
23.3	0.573	0.352	6.614
23.5	0.501	0.509	6.614
23.6	0.410	0.139	6.772
23.7	0.331	-0.152	6.772
23.9	0.282	-0.271	6.772
24.0	0.255	-0.192	6.772
24.1	0.230	0.084	6.772
24.3	0.194	0.194	6.772
24.4	0.151	0.084	6.929
24.6	0.117	-0.003	6.929
24.7	0.098	-0.066	6.929
24.8	0.090	-0.105	6.929
25.0	0.080	-0.019	6.929
25.1	0.064	0.052	7.087
25.2	0.050	0.029	7.087
25.4	0.048	0.037	7.087
25.5	0.059	0.037	7.087
25.6	0.074	-0.042	7.087
25.8	0.080	-0.082	7.244
25.9	0.073	-0.034	7.244
26.1	0.062	0.013	7.244
26.2	0.059	0.052	7.244
26.3	0.069	0.068	7.402
26.5	0.082	-0.003	7.244
26.6	0.087	-0.074	7.402
26.7	0.076	-0.058	7.402
26.9	0.055	0.013	7.402
27.0	0.036	0.037	7.402
27.1	0.027	0.021	7.402
27.3	0.028	0.005	7.402
27.4	0.032	-0.026	7.559
27.6	0.035	-0.026	7.559
27.7	0.036	0.013	7.559
27.8	0.038	0.037	7.559
28.0	0.043	-0.003	7.717
28.1	0.050	-0.050	7.717
28.2	0.056	-0.034	7.717
28.4	0.058	0.029	7.717
28.5	0.056	0.052	7.717
28.6	0.051	0.021	7.717
28.8	0.045	-0.026	7.874
28.9	0.037	-0.034	7.874
29.1	0.029	-0.026	7.874
29.2	0.021	-0.003	7.874
29.3	0.014	0.005	7.874
29.5	0.011	0.005	7.874
29.6	0.010	0.013	8.031
29.7	0.012	0.013	8.031
29.9	0.018	-0.011	8.031
30.0	0.031	0.005	8.031
30.1	0.053	0.044	8.031
30.3	0.086	0.005	8.189
30.4	0.132	-0.129	8.189
30.6	0.191	-0.137	8.189
30.7	0.266	0.107	8.189
30.8	0.361	0.352	8.189
31.0	0.482	0.123	8.189
31.1	0.627	-0.530	8.346
31.2	0.783	-0.625	8.346
31.4	0.923	0.304	8.346
31.5	1.013	0.997	8.346
31.7	1.036	0.391	8.346
31.8	0.994	-0.704	8.504
31.9	0.917	-0.885	8.504
32.1	0.844	-0.247	8.504
32.2	0.803	0.485	8.504
32.3	0.792	0.792	8.504
32.5	0.784	0.336	8.661
32.6	0.747	-0.452	8.661
32.7	0.668	-0.656	8.661
32.9	0.561	-0.200	8.661
33.0	0.456	0.273	8.661
33.2	0.377	0.375	8.661
33.3	0.327	0.194	8.819
33.4	0.292	-0.097	8.819
33.6	0.254	-0.247	8.819
33.7	0.209	-0.152	8.819
33.8	0.163	0.021	8.819
34.0	0.129	0.107	8.819
34.1	0.111	0.107	8.976
34.2	0.101	0.029	8.976
34.4	0.087	-0.058	8.976
34.5	0.066	-0.066	8.976
34.7	0.045	-0.019	8.976
34.8	0.033	-0.003	9.134
34.9	0.034	0.029	9.134
35.1	0.045	0.044	9.134
35.2	0.055	0.013	9.134
35.3	0.058	-0.034	9.134
35.5	0.056	-0.058	9.134
35.6	0.055	-0.026	9.291
35.7	0.059	0.029	9.291
35.9	0.069	0.068	9.291
36.0	0.081	0.029	9.291
36.2	0.091	-0.066	9.449
36.3	0.096	-0.089	9.449
36.4	0.096	-0.003	9.449
36.6	0.089	0.084	9.449
36.7	0.077	0.044	9.449
36.8	0.060	-0.034	9.449
37.0	0.042	-0.042	9.606
37.1	0.029	0.005	9.606
37.2	0.023	0.013	9.606
37.4	0.023	-0.019	9.606
37.5	0.023	-0.019	9.606
37.7	0.018	0.005	9.606
37.8	0.011	0.013	9.764
37.9	0.007	-0.003	9.764
38.1	0.012	-0.003	9.764
38.2	0.030	0.029	9.764
38.3	0.055	0.021	9.764
38.5	0.082	-0.066	9.921
38.6	0.102	-0.089	9.921
38.7	0.115	-0.003	9.921
38.9	0.120	0.107	9.921
39.0	0.118	0.092	9.921
39.2	0.111	-0.026	9.921
39.3	0.099	-0.097	10.079
39.4	0.084	-0.058	10.079
39.6	0.069	0.013	10.079
39.7	0.058	0.052	10.079
39.8	0.051	0.044	10.079
40.0	0.047	-0.003	10.236
40.1	0.046	-0.034	10.236
40.2	0.046	-0.042	10.236
40.4	0.049	-0.034	10.236
40.5	0.054	0.013	10.236
40.7	0.062	0.060	10.236
40.8	0.069	0.044	10.236
40.9	0.073	-0.026	10.394
41.1	0.071	-0.074	10.394
41.2	0.065	-0.034	10.394
41.3	0.055	0.021	10.394
41.5	0.044	0.044	10.394
41.6	0.037	0.021	10.551
41.7	0.034	-0.019	10.551
41.9	0.036	-0.034	10.551
42.0	0.042	-0.019	10.551
42.2	0.051	0.029	10.551
42.3	0.059	0.060	10.551
42.4	0.067	0.029	10.709
42.6	0.078	-0.034	10.709
42.7	0.095	-0.089	10.709
42.8	0.120	-0.097	10.709
43.0	0.148	-0.003	10.866
43.1	0.174	0.155	10.866
43.2	0.193	0.163	10.866
43.4	0.201	-0.011	10.866
43.5	0.197	-0.176	10.866
43.7	0.184	-0.152	10.866
43.8	0.164	0.013	11.024
43.9	0.139	0.123	10.866
44.1	0.112	0.100	11.024
44.2	0.089	0.013	11.024
44.3	0.071	-0.042	11.181
44.5	0.061	-0.058	11.181
44.6	0.057	-0.050	11.181
44.7	0.056	-0.011	11.181
44.9	0.055	0.037	11.181
45.0	0.056	0.052	11.181
45.2	0.059	0.044	11.181
45.3	0.065	0.005	11.181
45.4	0.073	-0.058	11.339
45.6	0.078	-0.074	11.339
45.7	0.080	-0.019	11.339
45.8	0.078	0.060	11.339
46.0	0.075	0.068	11.496
46.1	0.073	0.021	11.496
46.2	0.074	-0.050	11.496
46.4	0.074	-0.074	11.496
46.5	0.073	-0.026	11.496
46.7	0.069	0.044	11.496
46.8	0.062	0.060	11.496
46.9	0.053	0.013	11.654
47.1	0.043	-0.026	11.654
47.2	0.033	-0.034	11.654
47.3	0.025	-0.019	11.654
47.5	0.022	-0.011	11.811
47.6	0.024	0.005	11.811
47.7	0.032	0.029	11.811
47.9	0.042	0.037	11.811
48.0	0.052	-0.003	11.811
48.2	0.058	-0.050	11.969
48.3	0.059	-0.050	11.969
48.4	0.057	0.013	11.969
48.6	0.054	0.052	11.969
48.7	0.052	0.029	11.969
48.8	0.051	-0.026	11.969
49.0	0.050	-0.050	11.969
49.1	0.047	-0.011	12.126
49.2	0.043	0.037	12.126
49.4	0.038	0.029	12.126
49.5	0.032	-0.011	12.126
49.7	0.027	-0.026	12.126
49.8	0.024	-0.019	12.283
49.9	0.024	-0.003	12.283
50.1	0.027	0.021	12.283
50.2	0.031	0.029	12.283
50.3	0.035	0.013	12.283
50.5	0.035	-0.026	12.441
50.6	0.030	-0.026	12.441
50.8	0.021	-0.003	12.441
50.9	0.012	0.013	12.598
51.0	0.009	0.005	12.441
51.2	0.015	0.013	12.441
51.3	0.030	0.029	12.598
51.4	0.050	0.013	12.598
51.6	0.072	-0.050	12.598
51.7	0.093	-0.089	12.598
51.8	0.111	-0.019	12.756
52.0	0.127	0.100	12.756
52.1	0.141	0.131	12.756
52.3	0.149	0.005	12.756
52.4	0.148	-0.121	12.756
52.5	0.134	-0.121	12.756
52.7	0.108	-0.003	12.913
52.8	0.077	0.060	12.913
52.9	0.048	0.052	12.913
53.1	0.030	0.013	12.913
53.2	0.027	0.013	12.913
53.3	0.037	0.013	13.071
53.5	0.054	-0.026	13.071
53.6	0.072	-0.074	13.071
53.8	0.088	-0.058	13.071
53.9	0.100	0.021	13.071
54.0	0.110	0.107	13.071
54.2	0.118	0.084	13.228
54.3	0.121	-0.034	13.228
54.4	0.119	-0.113	13.228
54.6	0.110	-0.082	13.228
54.7	0.097	0.013	13.228
54.8	0.084	0.076	13.228
55.0	0.074	0.068	13.386
55.1	0.067	0.013	13.386
55.3	0.062	-0.034	13.386
55.4	0.056	-0.058	13.386
55.5	0.049	-0.026	13.386
55.7	0.040	0.021	13.543
55.8	0.032	0.029	13.543
55.9	0.028	0.021	13.543
56.1	0.026	-0.011	13.543
56.2	0.027	-0.019	13.543
56.3	0.027	-0.026	13.543
56.5	0.025	-0.003	13.701
56.6	0.022	0.021	13.701
56.8	0.019	0.013	13.701
56.9	0.016	-0.003	13.701
57.0	0.014	-0.011	13.701
57.2	0.012	-0.011	13.701
57.3	0.011	-0.011	13.858
57.4	0.012	0.005	13.858
57.6	0.014	0.013	13.858
57.7	0.017	0.005	13.858
57.8	0.019	-0.011	13.858
58.0	0.018	-0.019	14.016
58.1	0.014	-0.011	14.016
58.3	0.011	0.005	14.016
58.4	0.010	0.005	14.016
58.5	0.013	0.013	14.016
58.7	0.019	0.005	14.173
58.8	0.025	-0.019	14.173
58.9	0.027	-0.026	14.173
59.1	0.025	-0.011	14.173
59.2	0.022	0.005	14.173
59.3	0.019	0.021	14.173
59.5	0.019	0.013	14.331
59.6	0.020	-0.003	14.331
59.8	0.021	-0.019	14.331
59.9	0.022	-0.019	14.331
60.0	0.022	-0.003	14.331
60.2	0.023	0.021	14.488
60.3	0.024	0.021	14.488
60.4	0.027	0.005	14.488
60.6	0.031	-0.019	14.488
60.7	0.035	-0.034	14.488
60.8	0.038	-0.026	14.646
61.0	0.042	0.005	14.488
61.1	0.045	0.044	14.646
61.3	0.048	0.037	14.646
61.4	0.051	-0.003	14.646
61.5	0.052	-0.042	14.646
61.7	0.052	-0.050	14.803
61.8	0.050	-0.011	14.803
61.9	0.048	0.037	14.803
62.1	0.047	0.044	14.803
62.2	0.048	0.013	14.803
62.3	0.049	-0.026	14.961
62.5	0.050	-0.050	14.961
62.6	0.048	-0.034	14.961
62.8	0.045	0.013	14.961
62.9	0.040	0.037	14.961
63.0	0.034	0.021	14.961
63.2	0.029	-0.011	15.118
63.3	0.026	-0.026	15.118
63.4	0.023	-0.019	15.118
63.6	0.021	0.005	15.118
63.7	0.018	0.013	15.118
63.8	0.015	0.013	15.118
64.0	0.011	-0.003	15.276
64.1	0.009	-0.011	15.276
64.3	0.008	-0.003	15.276
64.4	0.008	-0.003	15.276
64.5	0.009	-0.011	15.276
64.7	0.010	-0.011	15.276
64.8	0.011	-0.003	15.433
64.9	0.012	0.005	15.433
65.1	0.014	0.013	15.433
65.2	0.016	0.005	15.433
65.3	0.017	-0.011	15.591
65.5	0.017	-0.019	15.591
65.6	0.016	-0.011	15.591
65.8	0.015	-0.003	15.591
65.9	0.017	0.005	15.591
66.0	0.019	0.021	15.591
66.2	0.021	0.013	15.591
66.3	0.021	-0.003	15.748
66.4	0.018	-0.019	15.748
66.6	0.013	-0.011	15.748
66.7	0.008	-0.003	15.748
66.8	0.005	-0.003	15.748
67.0	0.004	-0.003	15.748
67.1	0.005	0.005	15.906
67.3	0.007	0.005	15.906
67.4	0.009	0.005	15.906
67.5	0.012	-0.003	15.906
67.7	0.015	-0.011	16.063
67.8	0.016	-0.019	16.063
67.9	0.015	-0.003	16.063
68.1	0.014	0.005	16.063
68.2	0.014	0.013	16.063
68.3	0.016	0.013	16.063
68.5	0.019	-0.003	16.220
68.6	0.021	-0.019	16.220
68.8	0.020	-0.019	16.220
68.9	0.017	-0.003	16.378
69.0	0.014	0.005	16.378
69.2	0.013	0.013	16.220
69.3	0.015	0.013	16.378
69.4	0.016	-0.003	16.378
69.6	0.015	-0.011	16.378
69.7	0.011	-0.011	16.378
69.8	0.005	-0.003	16.535
70.0	0.002	-0.003	16.535
70.1	0.002	-0.003	16.535
70.3	0.007	0.005	16.535
70.4	0.013	0.005	16.535
70.5	0.018	-0.011	16.693
70.7	0.019	-0.019	16.693
70.8	0.017	-0.011	16.693
70.9	0.014	0.005	16.693
71.1	0.013	0.013	16.693
71.2	0.014	0.005	16.693
71.4	0.016	-0.003	16.693
71.5	0.016	-0.019	16.850
71.6	0.014	-0.011	16.850
71.8	0.010	-0.003	16.850
71.9	0.008	0.005	16.850
72.0	0.008	-0.003	16.850
72.2	0.011	-0.011	17.008
72.3	0.016	-0.011	17.008
72.4	0.019	0.005	17.008
72.6	0.021	0.021	17.008
72.7	0.021	0.013	17.008
72.9	0.022	-0.003	17.165
73.0	0.023	-0.019	17.165
73.1	0.025	-0.026	17.165
73.3	0.025	-0.011	17.165
73.4	0.022	0.013	17.165
73.5	0.016	0.013	17.165
73.7	0.009	-0.003	17.165
73.8	0.005	-0.003	17.323
73.9	0.007	0.005	17.323
74.1	0.013	-0.003	17.323
74.2	0.022	-0.019	17.323
74.4	0.030	-0.026	17.480
74.5	0.033	-0.003	17.480
74.6	0.033	0.029	17.480
74.8	0.033	0.029	17.480
74.9	0.033	0.013	17.480
75.0	0.035	-0.019	17.638
75.2	0.036	-0.034	17.638
75.3	0.035	-0.026	17.638
75.4	0.030	0.005	17.638
75.6	0.024	0.021	17.638
75.7	0.019	0.013	17.638
75.9	0.016	0.013	17.795
76.0	0.017	-0.003	17.795
76.1	0.018	-0.011	17.795
76.3	0.017	-0.019	17.795
76.4	0.016	-0.003	17.795
76.5	0.014	-0.019	17.795
76.7	0.012	0.005	17.953
76.8	0.011	-0.011	17.953
76.9	0.010	0.005	17.953
77.1	0.008	0.005	17.953
77.2	0.006	0.005	18.110
77.4	0.004	-0.003	17.953
77.5	0.003	-0.003	18.110
77.6	0.003	-0.003	18.110
77.8	0.005	-0.003	18.110
77.9	0.006	-0.003	18.110
78.0	0.006	0.005	18.268
78.2	0.008	0.005	18.268
78.3	0.009	-0.003	18.268
78.4	0.010	-0.011	18.268
78.6	0.010	-0.003	18.268
78.7	0.008	0.005	18.425
78.9	0.006	0.005	18.425
79.0	0.005	-0.003	18.425
79.1	0.005	-0.003	18.425
79.3	0.006	0.005	18.425
79.4	0.007	0.005	18.425
79.5	0.007	-0.003	18.425
79.7	0.005	-0.003	18.583
79.8	0.003	-0.003	18.583
79.9	0.003	-0.003	18.583
80.1	0.004	-0.003	18.583
80.2	0.006	-0.003	18.583
80.4	0.007	0.005	18.740
80.5	0.008	-0.003	18.740
80.6	0.007	-0.003	18.740
80.8	0.007	0.005	18.740
80.9	0.007	0.005	18.740
81.0	0.009	-0.003	18.740
81.2	0.012	-0.011	18.898
81.3	0.014	-0.011	18.898
81.4	0.015	0.005	18.898
81.6	0.014	0.013	18.898
81.7	0.013	0.005	18.898
81.9	0.011	-0.011	18.898
82.0	0.010	-0.003	19.055
82.1	0.009	-0.003	19.055
82.3	0.009	-0.003	19.055
82.4	0.008	0.005	19.055
82.5	0.007	0.005	19.213
82.7	0.006	0.005	19.213
82.8	0.008	0.005	19.213
82.9	0.012	0.005	19.213
83.1	0.017	-0.003	19.213
83.2	0.020	-0.019	19.213
83.4	0.021	-0.019	19.213
83.5	0.019	-0.003	19.370
83.6	0.015	0.013	19.370
83.8	0.011	0.005	19.370
83.9	0.010	-0.003	19.370
84.0	0.011	-0.011	19.528
84.2	0.014	-0.003	19.528
84.3	0.017	0.013	19.528
84.4	0.018	0.013	19.528
84.6	0.017	-0.003	19.528
84.7	0.015	-0.011	19.528
84.9	0.012	-0.003	19.685
85.0	0.009	-0.011	19.685
85.1	0.008	-0.003	19.685
85.3	0.007	-0.003	19.685
85.4	0.008	0.005	19.685
85.5	0.010	0.005	19.685
85.7	0.011	-0.003	19.843
85.8	0.011	-0.011	19.843
85.9	0.010	0.005	19.843
86.1	0.009	0.005	19.843
86.2	0.008	-0.003	19.843
86.4	0.007	-0.003	20.000
86.5	0.008	0.005	20.000
86.6	0.009	-0.003	20.000
86.8	0.011	-0.011	20.000
86.9	0.012	0.005	20.157
87.0	0.012	0.005	20.157
87.2	0.010	-0.003	20.157
87.3	0.008	-0.003	20.000
87.4	0.007	-0.003	20.157
87.6	0.008	-0.003	20.157
87.7	0.010	-0.003	20.315
87.9	0.012	-0.003	20.315
88.0	0.011	-0.003	20.315
88.1	0.009	0.005	20.315
88.3	0.007	-0.003	20.315
88.4	0.007	-0.003	20.315
88.5	0.009	-0.003	20.472
88.7	0.012	-0.003	20.472
88.8	0.014	0.005	20.472
88.9	0.014	0.013	20.472
89.1	0.011	-0.003	20.472
89.2	0.009	-0.003	20.472
89.4	0.008	-0.003	20.630
89.5	0.009	0.005	20.630
89.6	0.012	0.005	20.630
89.8	0.014	0.005	20.630
89.9	0.014	-0.011	20.630
90.0	0.013	-0.011	20.630
90.2	0.013	0.005	20.787
90.3	0.014	0.005	20.787
90.4	0.015	0.005	20.787
90.6	0.015	0.005	20.787
90.7	0.015	-0.011	20.945
90.9	0.013	-0.011	20.945
91.0	0.012	-0.003	20.945
91.1	0.012	-0.003	20.945
91.3	0.013	-0.003	20.945
91.4	0.013	-0.003	20.945
91.5	0.013	-0.003	20.945
91.7	0.012	0.005	21.102
91.8	0.012	0.005	21.102
92.0	0.012	0.005	21.102
92.1	0.013	-0.003	21.102
92.2	0.014	-0.011	21.260
92.4	0.014	-0.003	21.260
92.5	0.014	0.005	21.260
92.6	0.015	0.005	21.260
92.8	0.016	-0.003	21.260
92.9	0.017	-0.003	21.260
93.0	0.017	-0.003	21.417
93.2	0.017	-0.011	21.417
93.3	0.016	-0.003	21.417
93.5	0.016	-0.003	21.417
93.6	0.016	-0.003	21.417
93.7	0.017	-0.011	21.417
93.9	0.016	-0.003	21.575
94.0	0.015	-0.003	21.575
94.1	0.015	-0.003	21.575
94.3	0.016	-0.003	21.575
94.4	0.018	-0.003	21.575
94.5	0.021	-0.003	21.732
94.7	0.022	-0.011	21.732
94.8	0.022	-0.011	21.732
95.0	0.021	0.005	21.732
95.1	0.021	0.005	21.732
95.2	0.023	-0.003	21.732
95.4	0.026	-0.003	21.732
95.5	0.029	0.005	21.890
95.6	0.030	-0.019	21.890
95.8	0.030	-0.011	21.890
95.9	0.027	-0.019	22.047
96.0	0.025	0.013	21.890
96.2	0.026	0.013	21.890
96.3	0.032	0.021	22.047
96.5	0.047	-0.011	22.047
96.6	0.069	-0.058	22.047
96.7	0.096	-0.089	22.205
96.9	0.123	-0.034	22.205
97.0	0.144	0.084	22.047
97.1	0.160	0.155	22.205
97.3	0.173	0.131	22.205
97.4	0.190	0.029	22.205
97.5	0.217	-0.121	22.362
97.7	0.255	-0.239	22.362
97.8	0.309	-0.278	22.362
98.0	0.382	-0.137	22.362
98.1	0.482	0.202	22.362
98.2	0.610	0.588	22.362
98.4	0.762	0.619	22.520
98.5	0.916	0.029	22.520
98.6	1.047	-0.861	22.520
98.8	1.138	-1.011	22.520
98.9	1.186	-0.357	22.520
99.0	1.206	0.997	22.520
99.2	1.216	0.997	22.520
99.3	1.228	0.548	22.677
99.5	1.236	-1.011	22.677
99.6	1.231	-1.011	22.677
99.7	1.208	-0.672	22.677
99.9	1.172	0.800	22.677
100.0	1.136	0.997	22.835
100.1	1.102	0.698	22.835
100.3	1.060	-0.420	22.835
100.4	0.993	-0.971	22.992
100.5	0.893	-0.641	22.835
100.7	0.769	0.084	22.835
100.8	0.645	0.548	22.992
101.0	0.542	0.509	22.992
101.1	0.470	0.139	22.992
101.2	0.421	-0.255	23.150
101.4	0.378	-0.373	22.992
101.5	0.331	-0.208	23.150
101.6	0.278	0.044	23.150
101.8	0.225	0.186	23.150
101.9	0.180	0.178	23.150
102.0	0.147	0.092	23.307
102.2	0.126	-0.019	23.307
102.3	0.117	-0.074	23.307
102.5	0.116	-0.113	23.307
102.6	0.119	-0.097	23.307
102.7	0.122	-0.003	23.307
102.9	0.119	0.084	23.307
103.0	0.111	0.107	23.307
103.1	0.099	0.044	23.465
103.3	0.086	-0.042	23.465
103.4	0.075	-0.074	23.622
103.5	0.066	-0.050	23.465
103.7	0.057	-0.003	23.622
103.8	0.048	0.029	23.622
104.0	0.039	0.037	23.622
104.1	0.034	0.029	23.622
104.2	0.032	0.005	23.622
104.4	0.033	-0.019	23.780
104.5	0.034	-0.034	23.780
104.6	0.034	-0.026	23.780
104.8	0.032	-0.011	23.780
104.9	0.030	0.005	23.780
105.0	0.030	0.021	23.780
105.2	0.032	0.029	23.780
105.3	0.038	0.037	23.937
105.5	0.049	0.013	23.937
105.6	0.061	-0.034	23.937
105.7	0.072	-0.066	23.937
105.9	0.078	-0.058	23.937
106.0	0.079	0.021	24.094
106.1	0.076	0.068	24.094
106.3	0.071	0.060	24.094
106.4	0.069	0.005	24.094
106.5	0.067	-0.050	24.252
106.7	0.065	-0.066	24.252
106.8	0.060	-0.019	24.252
107.0	0.055	0.029	24.252
107.1	0.050	0.052	24.252
107.2	0.048	0.013	24.252
107.4	0.048	-0.026	24.252
107.5	0.045	-0.050	24.409
107.6	0.038	-0.019	24.409
107.8	0.029	0.005	24.409
107.9	0.022	0.013	24.409
108.0	0.022	-0.003	24.409
108.2	0.032	0.029	24.567
108.3	0.050	0.052	24.567
108.5	0.072	0.021	24.567
108.6	0.093	-0.058	24.567
108.7	0.109	-0.105	24.567
108.9	0.120	-0.066	24.724
109.0	0.125	0.052	24.724
109.1	0.126	0.123	24.724
109.3	0.121	0.084	24.724
109.4	0.114	-0.026	24.724
109.5	0.104	-0.097	24.724
109.7	0.091	-0.074	24.882
109.8	0.077	0.005	24.882
110.0	0.063	0.052	24.882
110.1	0.050	0.044	24.882
110.2	0.042	0.021	24.882
110.4	0.038	-0.019	25.039
110.5	0.037	-0.034	25.039
110.6	0.037	-0.034	25.039
110.8	0.036	-0.011	25.039
110.9	0.032	0.013	25.039
111.0	0.026	0.021	25.039
111.2	0.019	0.021	25.039
111.3	0.013	0.005	25.039
111.5	0.009	-0.003	25.197
111.6	0.008	-0.003	25.197
111.7	0.010	-0.011	25.197
111.9	0.013	-0.011	25.354
112.0	0.017	-0.011	25.354
112.1	0.019	0.005	25.354
112.3	0.020	0.021	25.354
112.4	0.022	0.013	25.354
112.6	0.025	-0.003	25.354
112.7	0.030	-0.026	25.512
112.8	0.034	-0.034	25.512
113.0	0.035	-0.011	25.512
113.1	0.034	0.013	25.669
113.2	0.032	0.029	25.512
113.4	0.031	0.029	25.512
113.5	0.032	-0.003	25.669
113.6	0.032	-0.026	25.669
113.8	0.029	-0.026	25.669
113.9	0.023	-0.003	25.669
114.1	0.017	0.013	25.669
114.2	0.014	0.013	25.669
114.3	0.017	-0.003	25.827
114.5	0.022	-0.019	25.827
114.6	0.028	-0.026	25.827
114.7	0.031	0.005	25.984
114.9	0.031	0.021	25.984
115.0	0.029	0.029	25.827
115.1	0.029	0.013	25.984
115.3	0.031	-0.011	25.984
115.4	0.034	-0.034	25.984
115.6	0.038	-0.034	25.984
115.7	0.040	-0.011	25.984
115.8	0.042	0.013	26.142
116.0	0.043	0.044	26.142
116.1	0.042	0.029	26.142
116.2	0.039	-0.019	26.142
116.4	0.034	-0.026	26.299
116.5	0.027	-0.026	26.299
116.6	0.022	-0.011	26.299
116.8	0.017	0.005	26.299
116.9	0.013	0.005	26.299
117.1	0.009	0.005	26.299
117.2	0.005	-0.003	26.299
117.3	0.003	0.005	26.457
117.5	0.005	-0.003	26.457
117.6	0.008	-0.003	26.457
117.7	0.011	-0.011	26.457
117.9	0.012	-0.011	26.614
118.0	0.011	0.005	26.614
118.1	0.010	0.005	26.614
118.3	0.014	0.005	26.614
118.4	0.022	-0.026	26.614
118.6	0.033	-0.019	26.614
118.7	0.045	0.005	26.614
118.8	0.056	0.052	26.772
119.0	0.067	0.052	26.772
119.1	0.082	-0.011	26.772
119.2	0.101	-0.089	26.929
119.4	0.119	-0.105	26.772
119.5	0.134	-0.019	26.929
119.6	0.140	0.107	26.929
119.8	0.138	0.131	26.929
119.9	0.132	0.052	26.929
120.1	0.125	-0.050	26.929
120.2	0.119	-0.121	26.929
120.3	0.114	-0.097	26.929
120.5	0.109	-0.050	26.929
120.6	0.102	0.021	26.772
120.7	0.096	0.076	26.772
120.9	0.092	0.092	26.457
121.0	0.091	0.060	24.252
121.1	0.091	-0.019	20.945
121.3	0.089	-0.082	17.638
121.4	0.081	-0.066	14.016
121.6	0.068	-0.003	10.551
121.7	0.053	0.044	7.717
121.8	0.040	0.037	5.512
122.0	0.031	0.005	3.937
122.1	0.028	-0.019	2.677
122.2	0.026	-0.026	1.732
122.4	0.023	-0.011	1.102
122.5	0.018	0.005	0.787
122.6	0.012	0.005	0.630
122.8	0.009	0.005	0.472
122.9	0.009	-0.003	0.472
123.1	0.013	-0.011	0.472
123.2	0.016	-0.011	0.472
123.3	0.016	-0.003	0.315
123.5	0.014	0.005	0.315
123.6	0.011	0.005	0.315
123.7	0.011	0.005	0.315
123.9	0.012	-0.003	0.315
124.0	0.013	-0.003	0.315
124.1	0.013	-0.003	0.315
124.3	0.012	-0.003	0.315
124.4	0.012	0.005	0.315
124.6	0.012	0.005	0.315
124.7	0.014	-0.003	0.315
124.8	0.015	-0.003	0.157
125.0	0.014	0.005	0.315
125.1	0.012	-0.003	0.315
125.2	0.009	0.005	0.157
125.4	0.008	-0.003	0.157
125.5	0.009	-0.003	0.315
125.6	0.010	0.005	0.315
125.8	0.012	-0.003	0.157
125.9	0.013	-0.003	0.157
126.1	0.014	-0.003	0.315
126.2	0.015	0.005	0.315
126.3	0.016	-0.003	0.315
126.5	0.016	-0.003	0.157
126.6	0.015	0.005	0.315
126.7	0.014	-0.003	0.315
126.9	0.013	-0.003	0.315
127.0	0.014	-0.003	0.315
127.1	0.015	-0.003	0.315
127.3	0.015	-0.003	0.315
127.4	0.014	0.005	0.315
127.6	0.014	-0.003	0.157
127.7	0.014	-0.003	0.315
127.8	0.015	0.005	0.315
128.0	0.015	0.005	0.315
128.1	0.015	-0.003	0.315
128.2	0.015	-0.003	0.315
128.4	0.014	-0.003	0.315
128.5	0.015	-0.003	0.315
128.6	0.017	0.005	0.315
128.8	0.018	0.005	0.315
128.9	0.017	-0.003	0.315
129.1	0.016	-0.003	0.315
129.2	0.015	-0.003	0.315
129.3	0.015	-0.003	0.315
129.5	0.017	0.005	0.315
129.6	0.019	0.005	0.315
129.7	0.020	0.005	0.315
129.9	0.020	-0.003	0.315
130.0	0.019	-0.003	0.315
130.1	0.019	-0.003	0.315
130.3	0.020	-0.003	0.315
130.4	0.022	-0.003	0.315
130.6	0.024	0.005	0.315
130.7	0.024	0.005	0.315
130.8	0.023	-0.003	0.157
131.0	0.021	0.005	0.315
131.1	0.019	-0.003	0.315
131.2	0.019	-0.003	0.315
131.4	0.020	-0.003	0.315
131.5	0.022	-0.003	0.315
131.7	0.023	-0.003	0.315
131.8	0.023	-0.003	0.315
131.9	0.023	-0.003	0.315
132.1	0.023	-0.003	0.315
132.2	0.024	-0.003	0.315
132.3	0.025	-0.003	0.315
132.5	0.026	-0.003	0.157
132.6	0.026	-0.003	0.315
132.7	0.027	-0.003	0.315
132.9	0.027	-0.003	0.315
133.0	0.028	-0.003	0.315
133.2	0.028	0.005	0.315
133.3	0.029	0.005	0.315
133.4	0.029	0.005	0.315
133.6	0.027	-0.003	0.315
133.7	0.027	-0.003	0.315
133.8	0.027	-0.003	0.315
134.0	0.030	-0.003	0.315
134.1	0.032	0.005	0.157
134.2	0.034	-0.003	0.315
134.4	0.035	-0.003	0.315
134.5	0.035	-0.003	0.315
134.7	0.035	-0.003	0.157
134.8	0.037	-0.003	0.157
134.9	0.038	-0.003	0.315
135.1	0.039	-0.003	0.315
135.2	0.039	-0.003	0.315
135.3	0.039	-0.003	0.315
135.5	0.041	-0.003	0.315
135.6	0.043	-0.003	0.315
135.7	0.046	-0.003	0.157
135.9	0.046	-0.003	0.315
136.0	0.045	-0.003	0.315
136.2	0.045	-0.003	0.315
136.3	0.049	-0.003	0.315
