# depth[mm]	Amp[V]	HF [V]	TGC [dB]
0.0	0.475	0.005	0.315 
0.1	0.737	0.021	0.472
0.3	1.008	0.990	0.157
0.4	1.232	-0.947	-0.157
0.5	1.367	-1.010	0.472
0.7	1.400	-1.010	0.472
0.8	1.350	0.533	0.315
1.0	1.261	0.998	0.157
1.1	1.194	0.998	0.000
1.2	1.189	-1.010	0.315
1.4	1.247	0.998	0.315
1.5	1.319	0.998	0.315
1.6	1.351	0.761	0.157
1.8	1.326	-1.010	0.315
1.9	1.285	-1.010	0.315
2.0	1.284	-0.892	0.315
2.2	1.342	0.998	0.157
2.3	1.412	0.998	0.315
2.5	1.422	0.998	0.315
2.6	1.346	-1.010	0.315
2.7	1.235	-1.010	0.157
2.9	1.178	0.281	0.157
3.0	1.211	0.998	0.157
3.1	1.272	0.998	0.315
3.3	1.248	-0.506	0.315
3.4	1.079	-1.010	0.315
3.5	0.829	-0.727	0.157
3.7	0.648	-0.310	0.157
3.8	0.655	-0.467	0.315
4.0	0.836	0.084	0.315
4.1	1.049	0.935	0.157
4.2	1.126	0.966	0.157
4.4	0.996	0.124	0.315
4.5	0.726	-0.609	0.315
4.6	0.459	-0.365	0.315
4.8	0.304	0.163	0.157
4.9	0.275	0.281	0.157
5.0	0.305	0.194	0.315
5.2	0.313	0.053	0.315
5.3	0.270	-0.207	0.315
5.5	0.200	-0.199	0.315
5.6	0.143	0.053	0.157
5.7	0.118	0.108	0.315
5.9	0.112	0.045	0.315
6.0	0.100	-0.010	0.315
6.1	0.076	-0.065	0.315
6.3	0.055	-0.058	0.315
6.4	0.062	-0.018	0.315
6.5	0.105	0.061	0.157
6.7	0.169	0.147	0.315
6.8	0.224	0.029	0.315
7.0	0.249	-0.215	0.157
7.1	0.248	-0.223	0.315
7.2	0.240	-0.010	0.315
7.4	0.242	0.179	0.315
7.5	0.255	0.242	0.315
7.6	0.263	0.037	0.315
7.8	0.246	-0.223	0.157
7.9	0.205	-0.121	0.315
8.0	0.157	0.100	0.157
8.2	0.126	0.124	0.315
8.3	0.123	0.068	0.157
8.5	0.136	0.013	0.157
8.6	0.145	-0.121	0.315
8.7	0.135	-0.128	0.315
8.9	0.110	-0.010	0.315
9.0	0.088	0.053	0.157
9.1	0.082	0.076	0.315
9.3	0.091	0.068	0.315
9.4	0.102	-0.034	0.157
9.5	0.103	-0.097	0.315
9.7	0.090	-0.026	0.315
9.8	0.074	0.061	0.157
10.0	0.064	0.053	0.157
10.1	0.063	-0.002	0.157
10.2	0.066	-0.042	0.157
10.4	0.067	-0.058	0.315
10.5	0.065	-0.050	0.157
10.6	0.063	0.005	0.315
10.8	0.064	0.053	0.157
10.9	0.065	0.053	0.157
11.1	0.064	-0.002	0.157
11.2	0.059	-0.050	0.315
11.3	0.056	-0.042	0.315
11.5	0.060	0.013	0.157
11.6	0.072	0.068	0.157
11.7	0.084	0.029	0.157
11.9	0.088	-0.065	0.157
12.0	0.080	-0.073	0.315
12.1	0.063	-0.002	0.157
12.3	0.046	0.037	0.315
12.4	0.035	0.029	0.315
12.6	0.030	0.005	0.315
12.7	0.029	-0.018	0.315
12.8	0.027	-0.018	0.315
13.0	0.026	0.005	0.157
13.1	0.026	0.021	0.315
13.2	0.029	0.005	0.157
13.4	0.032	-0.018	0.157
13.5	0.031	-0.026	0.315
13.6	0.026	-0.010	0.315
13.8	0.020	-0.002	0.315
13.9	0.019	0.013	0.157
14.1	0.027	0.013	0.315
14.2	0.043	0.029	0.315
14.3	0.064	0.013	0.315
14.5	0.093	-0.089	0.315
14.6	0.133	-0.042	0.157
14.7	0.188	0.179	0.157
14.9	0.249	0.108	0.315
15.0	0.299	-0.247	0.157
15.1	0.315	-0.215	0.157
15.3	0.287	0.155	0.157
15.4	0.226	0.226	0.157
15.6	0.159	0.005	0.157
15.7	0.118	-0.065	0.315
15.8	0.121	-0.097	0.315
16.0	0.161	-0.160	0.315
16.1	0.218	0.021	0.157
16.2	0.268	0.257	0.157
16.4	0.300	0.116	0.157
16.5	0.311	-0.254	0.157
16.6	0.303	-0.223	0.315
16.8	0.275	0.147	0.315
16.9	0.228	0.210	0.315
17.1	0.167	-0.034	0.157
17.2	0.108	-0.105	0.315
17.3	0.069	-0.050	0.315
17.5	0.062	-0.018	0.315
17.6	0.079	0.061	0.315
17.7	0.103	0.084	0.000
17.9	0.112	-0.050	0.315
18.0	0.101	-0.097	1.890
18.1	0.077	-0.002	3.307
18.3	0.053	0.045	4.094
18.4	0.041	0.037	4.724
18.6	0.041	0.013	5.197
18.7	0.045	-0.034	5.354
18.8	0.048	-0.034	5.512
19.0	0.046	0.029	5.669
19.1	0.039	0.029	5.669
19.2	0.031	-0.018	5.669
19.4	0.025	-0.018	5.827
19.5	0.026	-0.018	5.827
19.6	0.041	0.013	5.827
19.8	0.069	0.068	5.827
19.9	0.100	0.029	5.827
20.1	0.117	-0.089	5.984
20.2	0.109	-0.089	5.984
20.3	0.079	0.029	5.984
20.5	0.048	0.053	5.984
20.6	0.038	0.029	6.142
20.7	0.054	0.037	6.142
20.9	0.081	0.021	6.142
21.0	0.096	-0.073	6.142
21.1	0.088	-0.089	6.142
21.3	0.070	0.029	6.142
21.4	0.063	0.021	6.299
21.6	0.081	-0.058	6.142
21.7	0.116	0.045	6.299
21.8	0.147	0.171	6.299
22.0	0.166	0.076	6.299
22.1	0.193	-0.034	6.299
22.2	0.264	-0.136	6.457
22.4	0.403	-0.428	6.457
22.5	0.588	-0.302	6.457
22.6	0.758	0.446	6.457
22.8	0.845	0.801	6.457
22.9	0.818	0.061	6.614
23.1	0.702	-0.625	6.614
23.2	0.564	-0.491	6.614
23.3	0.466	-0.089	6.614
23.5	0.432	0.249	6.614
23.6	0.436	0.438	6.614
23.7	0.433	0.234	6.772
23.9	0.393	-0.199	6.772
24.0	0.321	-0.317	6.772
24.1	0.246	-0.136	6.772
24.3	0.197	0.053	6.929
24.4	0.181	0.163	6.929
24.6	0.182	0.163	6.929
24.7	0.175	-0.002	6.929
24.8	0.150	-0.128	6.929
25.0	0.113	-0.097	7.087
25.1	0.078	-0.010	7.087
25.2	0.058	0.037	7.087
25.4	0.053	0.053	7.087
25.5	0.055	0.037	7.087
25.6	0.056	-0.018	7.087
25.8	0.052	-0.050	7.244
25.9	0.046	-0.026	7.244
26.1	0.044	0.021	7.244
26.2	0.045	0.045	7.244
26.3	0.046	0.021	7.244
26.5	0.044	-0.026	7.244
26.6	0.037	-0.034	7.402
26.7	0.027	-0.010	7.402
26.9	0.018	0.013	7.402
27.0	0.012	0.013	7.402
27.1	0.012	-0.002	7.402
27.3	0.015	0.005	7.402
27.4	0.021	0.013	7.559
27.6	0.027	-0.002	7.559
27.7	0.031	-0.034	7.559
27.8	0.033	-0.018	7.559
28.0	0.033	0.013	7.559
28.1	0.032	0.029	7.717
28.2	0.032	0.021	7.717
28.4	0.033	-0.010	7.717
28.5	0.035	-0.034	7.717
28.6	0.038	-0.026	7.717
28.8	0.039	0.013	7.874
28.9	0.038	0.037	7.874
29.1	0.036	0.013	7.874
29.2	0.035	-0.026	7.874
29.3	0.036	-0.034	7.874
29.5	0.040	-0.002	7.874
29.6	0.046	0.037	8.031
29.7	0.052	0.045	8.031
29.9	0.057	-0.002	8.031
30.0	0.060	-0.058	8.031
30.1	0.060	-0.034	8.031
30.3	0.061	0.045	8.189
30.4	0.062	0.029	8.189
30.6	0.069	-0.065	8.189
30.7	0.087	-0.050	8.189
30.8	0.121	0.076	8.189
31.0	0.174	0.163	8.189
31.1	0.248	0.013	8.346
31.2	0.337	-0.310	8.346
31.4	0.431	-0.294	8.346
31.5	0.514	0.257	8.346
31.7	0.572	0.557	8.346
31.8	0.593	0.092	8.504
31.9	0.576	-0.491	8.504
32.1	0.533	-0.451	8.504
32.2	0.480	0.045	8.504
32.3	0.433	0.383	8.504
32.5	0.401	0.344	8.661
32.6	0.382	0.005	8.661
32.7	0.366	-0.310	8.661
32.9	0.343	-0.302	8.661
33.0	0.312	0.005	8.661
33.2	0.273	0.249	8.661
33.3	0.234	0.179	8.819
33.4	0.198	-0.034	8.819
33.6	0.165	-0.160	8.819
33.7	0.135	-0.097	8.819
33.8	0.108	0.037	8.819
34.0	0.087	0.084	8.819
34.1	0.073	0.029	8.976
34.2	0.065	-0.050	8.976
34.4	0.059	-0.050	8.976
34.5	0.052	0.013	8.976
34.7	0.042	0.045	8.976
34.8	0.034	-0.010	9.134
34.9	0.029	-0.010	9.134
35.1	0.031	0.029	9.134
35.2	0.038	0.005	9.134
35.3	0.047	-0.042	9.134
35.5	0.055	-0.050	9.291
35.6	0.063	-0.002	9.291
35.7	0.069	0.061	9.291
35.9	0.075	0.053	9.291
36.0	0.078	-0.034	9.291
36.2	0.079	-0.081	9.449
36.3	0.080	-0.010	9.449
36.4	0.082	0.076	9.449
36.6	0.084	0.029	9.449
36.7	0.081	-0.073	9.449
36.8	0.071	-0.042	9.449
37.0	0.054	0.037	9.606
37.1	0.038	0.037	9.606
37.2	0.028	0.005	9.606
37.4	0.029	-0.002	9.606
37.5	0.035	-0.026	9.606
37.7	0.039	-0.042	9.764
37.8	0.037	0.013	9.764
37.9	0.029	0.021	9.764
38.1	0.024	-0.018	9.764
38.2	0.026	0.005	9.764
38.3	0.037	0.037	9.764
38.5	0.048	-0.002	9.764
38.6	0.053	-0.050	9.921
38.7	0.049	-0.034	9.921
38.9	0.040	0.005	9.921
39.0	0.030	0.029	9.921
39.2	0.024	0.021	9.921
39.3	0.021	0.005	9.921
39.4	0.018	-0.010	10.079
39.6	0.015	-0.010	10.079
39.7	0.014	-0.010	10.079
39.8	0.017	-0.018	10.079
40.0	0.025	-0.010	10.079
40.1	0.035	0.021	10.079
40.2	0.042	0.037	10.236
40.4	0.044	-0.010	10.236
40.5	0.042	-0.042	10.236
40.7	0.040	-0.018	10.394
40.8	0.038	0.029	10.394
40.9	0.038	0.029	10.394
41.1	0.036	-0.010	10.394
41.2	0.033	-0.034	10.394
41.3	0.029	-0.018	10.394
41.5	0.025	0.005	10.551
41.6	0.024	0.021	10.394
41.7	0.025	0.021	10.551
41.9	0.027	0.005	10.551
42.0	0.031	-0.018	10.709
42.2	0.040	-0.042	10.551
42.3	0.053	-0.034	10.709
42.4	0.068	0.021	10.709
42.6	0.079	0.076	10.709
42.7	0.081	0.045	10.709
42.8	0.074	-0.034	10.709
43.0	0.064	-0.065	10.866
43.1	0.062	-0.050	10.866
43.2	0.077	-0.058	10.866
43.4	0.107	-0.002	10.866
43.5	0.146	0.124	10.866
43.7	0.183	0.163	10.866
43.8	0.207	0.005	11.024
43.9	0.214	-0.184	11.024
44.1	0.205	-0.176	11.024
44.2	0.183	0.005	11.024
44.3	0.155	0.139	11.024
44.5	0.126	0.108	11.181
44.6	0.102	0.021	11.181
44.7	0.084	-0.050	11.181
44.9	0.073	-0.073	11.181
45.0	0.069	-0.058	11.181
45.2	0.068	-0.002	11.339
45.3	0.068	0.045	11.181
45.4	0.069	0.068	11.339
45.6	0.068	0.029	11.339
45.7	0.064	-0.034	11.339
45.8	0.057	-0.058	11.339
46.0	0.051	-0.034	11.496
46.1	0.046	0.005	11.496
46.2	0.043	0.037	11.496
46.4	0.042	0.037	11.496
46.5	0.038	-0.002	11.496
46.7	0.030	-0.026	11.496
46.8	0.019	-0.018	11.654
46.9	0.010	-0.002	11.654
47.1	0.006	-0.002	11.654
47.2	0.006	-0.002	11.654
47.3	0.009	-0.002	11.654
47.5	0.012	0.013	11.811
47.6	0.011	0.005	11.811
47.7	0.010	0.005	11.811
47.9	0.011	-0.002	11.811
48.0	0.016	-0.010	11.969
48.2	0.025	-0.026	11.969
48.3	0.033	-0.010	11.969
48.4	0.040	0.029	11.969
48.6	0.043	0.037	11.969
48.7	0.043	-0.002	11.969
48.8	0.041	-0.042	12.126
49.0	0.038	-0.018	12.126
49.1	0.034	0.021	12.126
49.2	0.031	0.029	12.126
49.4	0.027	0.005	12.126
49.5	0.023	-0.018	12.126
49.7	0.020	-0.018	12.283
49.8	0.017	-0.002	12.283
49.9	0.014	0.013	12.283
50.1	0.011	0.005	12.283
50.2	0.008	-0.002	12.283
50.3	0.007	0.005	12.441
50.5	0.008	-0.002	12.441
50.6	0.010	-0.010	12.441
50.8	0.015	-0.010	12.441
50.9	0.021	0.013	12.441
51.0	0.027	0.021	12.441
51.2	0.031	-0.002	12.441
51.3	0.032	-0.034	12.598
51.4	0.032	-0.018	12.598
51.6	0.033	0.021	12.598
51.7	0.037	0.029	12.756
51.8	0.045	-0.010	12.756
52.0	0.054	-0.058	12.756
52.1	0.063	-0.026	12.756
52.3	0.072	0.045	12.756
52.4	0.080	0.076	12.756
52.5	0.090	0.037	12.756
52.7	0.101	-0.058	12.756
52.8	0.112	-0.113	12.913
52.9	0.119	-0.058	12.913
53.1	0.121	0.061	12.913
53.2	0.115	0.116	12.913
53.3	0.103	0.045	13.071
53.5	0.088	-0.050	13.071
53.6	0.072	-0.073	13.071
53.8	0.058	-0.026	13.071
53.9	0.046	0.021	13.071
54.0	0.038	0.037	13.071
54.2	0.031	0.021	13.228
54.3	0.025	-0.010	13.228
54.4	0.019	-0.018	13.228
54.6	0.014	-0.002	13.228
54.7	0.010	0.005	13.228
54.8	0.008	-0.010	13.228
55.0	0.010	-0.010	13.386
55.1	0.012	-0.002	13.386
55.3	0.013	0.005	13.386
55.4	0.013	0.013	13.386
55.5	0.011	-0.002	13.386
55.7	0.011	-0.010	13.543
55.8	0.013	-0.010	13.543
55.9	0.018	-0.002	13.543
56.1	0.022	0.021	13.543
56.2	0.023	0.005	13.543
56.3	0.018	-0.018	13.701
56.5	0.012	-0.010	13.701
56.6	0.007	-0.002	13.701
56.8	0.006	-0.002	13.701
56.9	0.009	-0.002	13.701
57.0	0.012	0.013	13.858
57.2	0.013	0.005	13.701
57.3	0.012	-0.010	13.858
57.4	0.010	-0.002	13.858
57.6	0.009	0.005	13.858
57.7	0.010	-0.010	13.858
57.8	0.010	-0.010	13.858
58.0	0.009	-0.002	14.016
58.1	0.008	0.005	14.016
58.3	0.006	-0.002	14.016
58.4	0.006	-0.002	14.016
58.5	0.006	0.005	14.016
58.7	0.008	0.005	14.173
58.8	0.009	-0.010	14.173
58.9	0.010	-0.002	14.173
59.1	0.011	0.005	14.173
59.2	0.011	0.005	14.173
59.3	0.010	-0.010	14.173
59.5	0.008	-0.010	14.331
59.6	0.007	-0.002	14.331
59.8	0.008	-0.002	14.331
59.9	0.010	-0.010	14.331
60.0	0.011	-0.010	14.331
60.2	0.010	0.005	14.488
60.3	0.008	0.005	14.488
60.4	0.005	-0.002	14.488
60.6	0.005	-0.002	14.488
60.7	0.006	-0.002	14.488
60.8	0.009	-0.010	14.488
61.0	0.011	-0.010	14.646
61.1	0.013	-0.002	14.646
61.3	0.016	0.005	14.646
61.4	0.021	0.021	14.646
61.5	0.027	0.013	14.803
61.7	0.031	-0.018	14.803
61.8	0.033	-0.034	14.803
61.9	0.032	-0.010	14.803
62.1	0.032	0.021	14.803
62.2	0.033	0.029	14.803
62.3	0.034	0.013	14.961
62.5	0.032	-0.026	14.961
62.6	0.027	-0.026	14.961
62.8	0.019	-0.002	14.961
62.9	0.011	0.005	14.961
63.0	0.008	0.005	14.961
63.2	0.009	-0.010	15.118
63.3	0.011	0.005	15.118
63.4	0.015	0.013	15.118
63.6	0.018	0.005	15.118
63.7	0.022	-0.010	15.118
63.8	0.027	-0.026	15.276
64.0	0.032	-0.026	15.276
64.1	0.034	0.005	15.276
64.3	0.032	0.029	15.276
64.4	0.028	0.021	15.276
64.5	0.026	-0.002	15.276
64.7	0.028	-0.018	15.433
64.8	0.033	-0.034	15.433
64.9	0.039	-0.026	15.433
65.1	0.041	0.013	15.433
65.2	0.039	0.037	15.591
65.3	0.034	0.021	15.433
65.5	0.029	-0.010	15.433
65.6	0.026	-0.026	15.591
65.8	0.026	-0.018	15.591
65.9	0.026	0.013	15.591
66.0	0.025	0.021	15.591
66.2	0.022	-0.002	15.591
66.3	0.018	-0.018	15.748
66.4	0.013	-0.010	15.748
66.6	0.009	0.005	15.748
66.7	0.006	-0.002	15.748
66.8	0.004	0.005	15.906
67.0	0.004	-0.002	15.906
67.1	0.006	0.005	15.906
67.3	0.009	-0.002	15.906
67.4	0.012	-0.010	15.906
67.5	0.014	-0.010	15.906
67.7	0.015	-0.002	16.063
67.8	0.013	0.013	16.063
67.9	0.010	0.005	16.063
68.1	0.005	-0.002	16.063
68.2	0.002	-0.002	16.220
68.3	0.002	-0.002	16.063
68.5	0.004	-0.002	16.220
68.6	0.008	0.005	16.220
68.8	0.009	0.005	16.220
68.9	0.009	-0.002	16.378
69.0	0.007	-0.010	16.220
69.2	0.008	-0.002	16.378
69.3	0.011	0.005	16.378
69.4	0.015	-0.010	16.378
69.6	0.018	-0.018	16.378
69.7	0.018	-0.002	16.535
69.8	0.014	0.013	16.535
70.0	0.010	0.005	16.535
70.1	0.009	0.005	16.535
70.3	0.012	-0.002	16.535
70.4	0.016	-0.018	16.535
70.5	0.019	-0.010	16.535
70.7	0.018	0.005	16.693
70.8	0.014	0.013	16.693
70.9	0.009	0.005	16.693
71.1	0.005	-0.002	16.693
71.2	0.003	-0.002	16.693
71.4	0.002	-0.002	16.850
71.5	0.003	-0.002	16.850
71.6	0.003	-0.002	16.850
71.8	0.004	-0.002	16.850
71.9	0.005	-0.002	16.850
72.0	0.006	0.005	17.008
72.2	0.006	0.005	17.008
72.3	0.007	-0.002	17.008
72.4	0.008	-0.002	17.008
72.6	0.008	-0.010	17.008
72.7	0.009	-0.002	17.008
72.9	0.008	0.005	17.165
73.0	0.006	0.005	17.165
73.1	0.005	-0.002	17.165
73.3	0.006	-0.002	17.165
73.4	0.008	0.005	17.165
73.5	0.013	-0.010	17.165
73.7	0.018	-0.018	17.323
73.8	0.022	-0.010	17.323
73.9	0.026	0.005	17.323
74.1	0.029	0.029	17.323
74.2	0.030	0.021	17.323
74.4	0.030	-0.010	17.323
74.5	0.028	-0.026	17.480
74.6	0.023	-0.018	17.480
74.8	0.017	-0.002	17.480
74.9	0.010	0.005	17.480
75.0	0.005	0.005	17.480
75.2	0.005	0.005	17.638
75.3	0.008	0.005	17.638
75.4	0.014	0.005	17.638
75.6	0.020	-0.018	17.638
75.7	0.022	-0.018	17.638
75.9	0.020	-0.002	17.795
76.0	0.015	0.013	17.795
76.1	0.009	0.005	17.795
76.3	0.005	-0.002	17.795
76.4	0.005	0.005	17.795
76.5	0.007	-0.002	17.953
76.7	0.009	-0.010	17.953
76.8	0.010	-0.002	17.953
76.9	0.009	0.005	17.953
77.1	0.006	0.005	17.953
77.2	0.004	-0.002	17.953
77.4	0.003	-0.002	17.953
77.5	0.002	-0.002	18.110
77.6	0.003	-0.002	18.110
77.8	0.004	-0.002	18.110
77.9	0.006	-0.002	18.268
78.0	0.006	-0.002	18.268
78.2	0.007	0.005	18.268
78.3	0.006	0.005	18.268
78.4	0.006	-0.002	18.268
78.6	0.005	-0.002	18.268
78.7	0.005	0.005	18.425
78.9	0.005	-0.002	18.425
79.0	0.006	-0.002	18.425
79.1	0.008	0.005	18.425
79.3	0.009	0.005	18.425
79.4	0.009	0.005	18.425
79.5	0.009	-0.010	18.583
79.7	0.008	-0.002	18.583
79.8	0.007	0.005	18.583
79.9	0.006	-0.002	18.583
80.1	0.006	-0.002	18.583
80.2	0.006	0.005	18.740
80.4	0.006	0.005	18.740
80.5	0.005	-0.002	18.740
80.6	0.005	-0.002	18.740
80.8	0.005	-0.002	18.740
80.9	0.005	-0.002	18.740
81.0	0.005	0.005	18.740
81.2	0.004	-0.002	18.898
81.3	0.003	-0.002	18.898
81.4	0.003	-0.002	18.898
81.6	0.004	-0.002	18.898
81.7	0.007	-0.002	18.898
81.9	0.011	0.005	19.055
82.0	0.014	0.013	19.055
82.1	0.014	0.005	19.055
82.3	0.011	-0.010	19.055
82.4	0.006	-0.002	19.055
82.5	0.003	-0.002	19.055
82.7	0.004	-0.002	19.055
82.8	0.006	0.005	19.213
82.9	0.008	0.005	19.213
83.1	0.009	0.005	19.213
83.2	0.008	-0.002	19.370
83.4	0.007	-0.010	19.370
83.5	0.007	-0.002	19.370
83.6	0.009	-0.002	19.370
83.8	0.011	0.005	19.370
83.9	0.012	0.013	19.370
84.0	0.009	-0.002	19.528
84.2	0.005	-0.002	19.370
84.3	0.003	-0.002	19.528
84.4	0.004	-0.002	19.528
84.6	0.007	-0.002	19.528
84.7	0.011	0.005	19.528
84.9	0.012	0.013	19.685
85.0	0.011	0.005	19.685
85.1	0.008	-0.002	19.685
85.3	0.006	-0.002	19.685
85.4	0.007	0.005	19.685
85.5	0.009	-0.002	19.685
85.7	0.011	-0.010	19.843
85.8	0.011	-0.010	19.843
85.9	0.010	-0.002	19.843
86.1	0.008	0.005	20.000
86.2	0.006	-0.002	19.843
86.4	0.005	-0.002	20.000
86.5	0.005	0.005	20.000
86.6	0.005	-0.002	20.000
86.8	0.005	-0.002	20.000
86.9	0.006	0.005	20.157
87.0	0.006	0.005	20.157
87.2	0.006	-0.002	20.157
87.3	0.005	-0.002	20.157
87.4	0.003	-0.002	20.157
87.6	0.002	-0.002	20.157
87.7	0.003	-0.002	20.315
87.9	0.005	-0.002	20.315
88.0	0.007	0.005	20.315
88.1	0.009	0.005	20.315
88.3	0.009	-0.002	20.315
88.4	0.008	-0.010	20.472
88.5	0.008	-0.002	20.472
88.7	0.008	-0.002	20.472
88.8	0.008	0.005	20.472
88.9	0.007	0.005	20.472
89.1	0.006	-0.002	20.472
89.2	0.005	-0.002	20.472
89.4	0.004	-0.002	20.630
89.5	0.004	-0.002	20.630
89.6	0.004	-0.002	20.630
89.8	0.005	-0.002	20.630
89.9	0.005	-0.002	20.630
90.0	0.006	0.005	20.787
90.2	0.008	0.005	20.787
90.3	0.010	-0.002	20.787
90.4	0.012	-0.010	20.787
90.6	0.011	-0.010	20.787
90.7	0.010	-0.002	20.787
90.9	0.009	0.005	20.945
91.0	0.009	0.005	20.945
91.1	0.010	0.005	20.945
91.3	0.012	-0.010	20.945
91.4	0.011	-0.010	20.945
91.5	0.010	-0.002	20.945
91.7	0.008	0.005	21.102
91.8	0.008	0.005	21.102
92.0	0.008	-0.002	21.102
92.1	0.009	-0.010	21.102
92.2	0.010	-0.002	21.260
92.4	0.009	0.005	21.260
92.5	0.008	0.005	21.260
92.6	0.007	0.005	21.260
92.8	0.007	0.005	21.260
92.9	0.008	-0.002	21.260
93.0	0.008	-0.002	21.417
93.2	0.008	-0.010	21.417
93.3	0.008	-0.002	21.417
93.5	0.007	0.005	21.417
93.6	0.006	-0.002	21.417
93.7	0.004	-0.002	21.417
93.9	0.004	-0.002	21.575
94.0	0.004	-0.002	21.575
94.1	0.005	-0.002	21.575
94.3	0.006	-0.002	21.575
94.4	0.006	-0.002	21.732
94.5	0.005	-0.002	21.732
94.7	0.005	0.005	21.732
94.8	0.007	0.005	21.732
95.0	0.009	0.005	21.732
95.1	0.012	0.005	21.732
95.2	0.013	-0.010	21.732
95.4	0.010	-0.010	21.890
95.5	0.007	-0.002	21.890
95.6	0.004	-0.002	21.890
95.8	0.004	-0.002	21.890
95.9	0.007	0.005	21.890
96.0	0.010	-0.002	22.047
96.2	0.014	-0.010	22.047
96.3	0.021	0.013	22.047
96.5	0.032	0.029	22.047
96.6	0.049	0.005	22.047
96.7	0.070	-0.058	22.047
96.9	0.089	-0.081	22.205
97.0	0.100	-0.018	22.205
97.1	0.103	0.076	22.205
97.3	0.102	0.100	22.205
97.4	0.106	0.068	22.205
97.5	0.123	0.005	22.362
97.7	0.157	-0.097	22.362
97.8	0.206	-0.207	22.362
98.0	0.268	-0.199	22.362
98.1	0.335	0.013	22.362
98.2	0.402	0.336	22.362
98.4	0.465	0.431	22.362
98.5	0.519	0.084	22.520
98.6	0.559	-0.412	22.520
98.8	0.582	-0.562	22.520
98.9	0.588	-0.191	22.520
99.0	0.581	0.360	22.520
99.2	0.566	0.564	22.677
99.3	0.546	0.249	22.677
99.5	0.522	-0.262	22.677
99.6	0.492	-0.491	22.835
99.7	0.457	-0.262	22.677
99.9	0.416	0.163	22.677
100.0	0.373	0.368	22.835
100.1	0.332	0.218	22.835
100.3	0.295	-0.081	22.835
100.4	0.263	-0.254	22.835
100.5	0.232	-0.176	22.835
100.7	0.201	0.021	22.992
100.8	0.171	0.147	22.992
101.0	0.143	0.131	22.992
101.1	0.118	0.029	22.992
101.2	0.097	-0.058	23.150
101.4	0.079	-0.081	23.150
101.5	0.065	-0.050	23.150
101.6	0.057	-0.002	23.150
101.8	0.057	0.021	23.150
101.9	0.063	0.061	23.150
102.0	0.071	0.061	23.307
102.2	0.079	-0.018	23.307
102.3	0.083	-0.073	23.307
102.5	0.084	-0.065	23.307
102.6	0.083	0.013	23.307
102.7	0.081	0.076	23.307
102.9	0.078	0.061	23.465
103.0	0.074	-0.018	23.465
103.1	0.067	-0.065	23.465
103.3	0.059	-0.034	23.465
103.4	0.051	0.021	23.465
103.5	0.043	0.045	23.465
103.7	0.038	0.021	23.622
103.8	0.035	-0.010	23.622
104.0	0.033	-0.034	23.622
104.1	0.032	-0.018	23.780
104.2	0.031	0.013	23.780
104.4	0.030	0.029	23.622
104.5	0.029	0.005	23.780
104.6	0.030	-0.026	23.780
104.8	0.032	-0.026	23.780
104.9	0.036	0.005	23.780
105.0	0.043	0.037	23.780
105.2	0.048	0.037	23.780
105.3	0.051	-0.018	23.937
105.5	0.050	-0.050	23.937
105.6	0.046	-0.026	23.937
105.7	0.042	0.005	23.937
105.9	0.040	0.037	24.094
106.0	0.040	0.037	24.094
106.1	0.042	0.005	24.094
106.3	0.044	-0.034	24.094
106.4	0.045	-0.042	24.094
106.5	0.043	-0.002	24.094
106.7	0.042	0.029	24.252
106.8	0.040	0.037	24.252
107.0	0.040	0.029	24.252
107.1	0.040	-0.010	24.252
107.2	0.039	-0.034	24.252
107.4	0.038	-0.034	24.409
107.5	0.036	-0.002	24.409
107.6	0.032	0.021	24.409
107.8	0.027	0.029	24.409
107.9	0.023	-0.002	24.409
108.0	0.021	-0.018	24.409
108.2	0.021	-0.010	24.409
108.3	0.024	0.013	24.567
108.5	0.029	0.029	24.567
108.6	0.034	0.005	24.567
108.7	0.040	-0.034	24.567
108.9	0.044	-0.034	24.724
109.0	0.047	-0.002	24.724
109.1	0.049	0.045	24.724
109.3	0.050	0.045	24.724
109.4	0.050	0.005	24.724
109.5	0.048	-0.034	24.724
109.7	0.044	-0.042	24.882
109.8	0.037	-0.010	24.882
110.0	0.029	0.021	24.882
110.1	0.021	0.021	24.882
110.2	0.015	0.005	24.882
110.4	0.012	-0.002	24.882
110.5	0.011	-0.010	25.039
110.6	0.011	-0.002	25.039
110.8	0.010	0.005	25.039
110.9	0.008	-0.002	25.039
111.0	0.006	-0.002	25.039
111.2	0.005	-0.002	25.197
111.3	0.006	-0.002	25.197
111.5	0.009	-0.002	25.197
111.6	0.012	-0.010	25.197
111.7	0.016	-0.002	25.197
111.9	0.020	0.013	25.354
112.0	0.024	0.021	25.354
112.1	0.029	0.013	25.354
112.3	0.033	-0.018	25.512
112.4	0.034	-0.034	25.512
112.6	0.033	-0.018	25.512
112.7	0.030	0.013	25.512
112.8	0.027	0.021	25.512
113.0	0.024	0.021	25.512
113.1	0.021	-0.002	25.512
113.2	0.018	-0.018	25.512
113.4	0.015	-0.002	25.512
113.5	0.013	-0.002	25.669
113.6	0.013	-0.010	25.669
113.8	0.015	-0.018	25.669
113.9	0.019	-0.002	25.827
114.1	0.022	0.005	25.827
114.2	0.025	0.021	25.669
114.3	0.028	0.021	25.827
114.5	0.033	-0.010	25.827
114.6	0.040	-0.034	25.827
114.7	0.047	-0.042	25.827
114.9	0.053	-0.010	25.984
115.0	0.056	0.037	25.984
115.1	0.058	0.061	25.984
115.3	0.061	0.021	25.984
115.4	0.065	-0.026	25.984
115.6	0.072	-0.073	26.142
115.7	0.078	-0.058	26.142
115.8	0.082	0.005	26.142
116.0	0.080	0.068	26.142
116.1	0.075	0.068	26.142
116.2	0.068	0.013	26.142
116.4	0.062	-0.042	26.299
116.5	0.058	-0.058	26.299
116.6	0.057	-0.034	26.299
116.8	0.057	0.013	26.299
116.9	0.059	0.053	26.299
117.1	0.060	0.053	26.299
117.2	0.060	0.005	26.457
117.3	0.059	-0.042	26.457
117.5	0.056	-0.058	26.457
117.6	0.052	-0.018	26.457
117.7	0.049	0.021	26.457
117.9	0.045	0.045	26.457
118.0	0.042	0.029	26.614
118.1	0.038	-0.002	26.614
118.3	0.035	-0.026	26.614
118.4	0.035	-0.034	26.614
118.6	0.040	-0.034	26.614
118.7	0.050	-0.034	26.772
118.8	0.065	0.005	26.772
119.0	0.080	0.068	26.772
119.1	0.093	0.084	26.772
119.2	0.104	0.013	26.772
119.4	0.114	-0.081	26.929
119.5	0.122	-0.121	26.929
119.6	0.128	-0.050	26.929
119.8	0.131	0.076	26.929
119.9	0.129	0.124	26.929
120.1	0.122	0.061	26.929
120.2	0.113	-0.058	26.929
120.3	0.103	-0.105	26.929
120.5	0.094	-0.065	26.929
120.6	0.086	-0.010	26.929
120.7	0.080	0.053	26.772
120.9	0.074	0.076	26.457
121.0	0.070	0.045	24.409
121.1	0.066	-0.002	20.945
121.3	0.062	-0.050	17.638
121.4	0.057	-0.058	14.173
121.6	0.049	-0.018	10.709
121.7	0.041	0.013	7.874
121.8	0.032	0.029	5.669
122.0	0.025	0.013	3.937
122.1	0.020	-0.010	2.677
122.2	0.017	-0.010	1.732
122.4	0.016	-0.010	1.102
122.5	0.015	0.005	0.787
122.6	0.013	0.005	0.472
122.8	0.012	0.005	0.472
122.9	0.011	-0.002	0.472
123.1	0.011	-0.002	0.472
123.2	0.011	-0.002	0.472
123.3	0.013	-0.010	0.315
123.5	0.015	-0.002	0.315
123.6	0.017	-0.002	0.315
123.7	0.017	0.005	0.315
123.9	0.016	0.005	0.315
124.0	0.014	-0.002	0.315
124.1	0.013	-0.002	0.315
124.3	0.012	-0.002	0.315
124.4	0.014	-0.002	0.315
124.6	0.016	0.005	0.315
124.7	0.018	-0.002	0.157
124.8	0.018	-0.002	0.315
125.0	0.017	-0.002	0.315
125.1	0.016	-0.002	0.315
125.2	0.017	-0.002	0.157
125.4	0.018	-0.002	0.315
125.5	0.019	-0.002	0.315
125.6	0.018	-0.002	0.315
125.8	0.017	0.005	0.315
125.9	0.016	-0.002	0.315
126.1	0.015	-0.002	0.315
126.2	0.016	-0.002	0.315
126.3	0.017	-0.002	0.315
126.5	0.018	-0.002	0.315
126.6	0.018	-0.002	0.315
126.7	0.018	-0.002	0.315
126.9	0.018	-0.002	0.315
127.0	0.020	-0.002	0.315
127.1	0.020	-0.002	0.315
127.3	0.020	-0.002	0.315
127.4	0.019	0.005	0.315
127.6	0.018	-0.002	0.315
127.7	0.018	-0.002	0.315
127.8	0.019	-0.002	0.315
128.0	0.020	-0.002	0.315
128.1	0.021	-0.002	0.315
128.2	0.020	0.005	0.315
128.4	0.020	-0.002	0.315
128.5	0.020	-0.002	0.315
128.6	0.020	-0.002	0.315
128.8	0.020	0.005	0.315
128.9	0.019	-0.002	0.315
129.1	0.018	-0.002	0.315
129.2	0.017	-0.002	0.315
129.3	0.019	-0.002	0.315
129.5	0.022	0.005	0.315
129.6	0.024	-0.002	0.315
129.7	0.025	-0.002	0.315
129.9	0.024	-0.002	0.315
130.0	0.023	-0.002	0.315
130.1	0.023	-0.002	0.315
130.3	0.025	-0.002	0.315
130.4	0.027	-0.002	0.315
130.6	0.028	-0.002	0.315
130.7	0.027	0.005	0.315
130.8	0.024	-0.002	0.315
131.0	0.023	0.005	0.315
131.1	0.023	-0.002	0.315
131.2	0.024	-0.002	0.315
131.4	0.026	0.005	0.315
131.5	0.027	0.005	0.315
131.7	0.027	-0.002	0.157
131.8	0.028	-0.002	0.315
131.9	0.028	-0.002	0.315
132.1	0.029	-0.002	0.315
132.2	0.029	-0.002	0.315
132.3	0.029	0.005	0.315
132.5	0.029	-0.002	0.315
132.6	0.028	-0.002	0.315
132.7	0.029	-0.002	0.315
132.9	0.030	-0.002	0.315
133.0	0.031	-0.002	0.315
133.2	0.032	-0.002	0.315
133.3	0.033	-0.002	0.315
133.4	0.034	-0.002	0.315
133.6	0.035	-0.002	0.315
133.7	0.036	-0.002	0.315
133.8	0.036	-0.002	0.315
134.0	0.037	0.005	0.315
134.1	0.036	-0.002	0.315
134.2	0.036	-0.002	0.315
134.4	0.037	-0.002	0.315
134.5	0.038	-0.002	0.315
134.7	0.039	-0.002	0.315
134.8	0.041	-0.002	0.315
134.9	0.043	-0.002	0.157
135.1	0.044	-0.002	0.315
135.2	0.045	0.005	0.315
135.3	0.046	0.005	0.315
135.5	0.048	-0.002	0.315
135.6	0.051	-0.002	0.315
135.7	0.052	-0.002	0.315
135.9	0.051	0.005	0.315
136.0	0.050	-0.002	0.315
136.2	0.050	-0.002	0.315
136.3	0.053	-0.002	0.315
