# f U0 Uc dt
# [Hz] [V] [V] [Î¼s]
#  30  19.4  18.3    960
  10  19.4  18.5    2000
  70  19.4  16.24   1240
 100  19.3  13.97   1160
 300  19.3   6.57   640
 700  19.2   2.95   320
1000  19.2   2.09   232
2000  19.2   1.05   122
3000  19.2   0.70   81.60
4000  19.2   0.53   62.40
5000  19.2   0.42   49.60
